#Potential (V)	Current (A)	Frequency (Hz)
0.49033	-6.85E-06	0.00000
0.48529	-8.34E-06	1.52500
0.48032	-9.69E-06	0.00000
0.47531	-1.03E-05	0.00000
0.47031	-1.11E-05	0.00000
0.46533	-1.14E-05	1.52500
0.46033	-1.21E-05	0.00000
0.45529	-1.22E-05	0.00000
0.45032	-1.27E-05	0.00000
0.44531	-1.28E-05	0.00000
0.44031	-1.33E-05	0.00000
0.43533	-1.34E-05	0.00000
0.4303	-1.39E-05	0.00000
0.42529	-1.39E-05	0.00000
0.42032	-1.44E-05	0.00000
0.41531	-1.44E-05	0.00000
0.41031	-1.48E-05	0.00000
0.4053	-1.49E-05	0.00000
0.4003	-1.53E-05	-1.52500
0.39532	-1.53E-05	-1.52500
0.39032	-1.58E-05	0.00000
0.38531	-1.58E-05	0.00000
0.38031	-1.63E-05	0.00000
0.37531	-1.63E-05	0.00000
0.3703	-1.68E-05	0.00000
0.36533	-1.68E-05	0.00000
0.36032	-1.73E-05	0.00000
0.35532	-1.74E-05	0.00000
0.35031	-1.79E-05	-1.52500
0.34531	-1.79E-05	0.00000
0.34033	-1.85E-05	-1.52500
0.33533	-1.86E-05	0.00000
0.33032	-1.92E-05	0.00000
0.32532	-1.93E-05	0.00000
0.32031	-2.00E-05	-1.52500
0.31531	-2.02E-05	-1.52500
0.31033	-2.09E-05	-1.52500
0.30533	-2.11E-05	0.00000
0.30032	-2.19E-05	-1.52500
0.29532	-2.22E-05	-1.52500
0.29031	-2.31E-05	-1.52500
0.28531	-2.35E-05	-1.52500
0.28033	-2.45E-05	-1.52500
0.27533	-2.49E-05	-1.52500
0.27032	-2.60E-05	-3.05000
0.26532	-2.65E-05	-3.05000
0.26031	-2.77E-05	-1.52500
0.25531	-2.82E-05	-1.52500
0.25034	-2.95E-05	-3.05000
0.24533	-3.01E-05	-3.05000
0.24033	-3.15E-05	-3.05000
0.23532	-3.22E-05	-3.05000
0.23035	-3.36E-05	-3.05000
0.22534	-3.43E-05	-3.05000
0.22034	-3.58E-05	-3.05000
0.21536	-3.66E-05	-3.05000
0.21033	-3.81E-05	-3.05000
0.20532	-3.89E-05	-3.05000
0.20035	-4.05E-05	-3.05000
0.19534	-4.14E-05	-3.05000
0.19034	-4.30E-05	-3.05000
0.18536	-4.39E-05	-3.05000
0.18036	-4.56E-05	-4.58000
0.17532	-4.67E-05	-4.58000
0.17035	-4.84E-05	-4.58000
0.16534	-4.96E-05	-4.58000
0.16034	-5.15E-05	-4.58000
0.15533	-5.27E-05	-4.58000
0.15033	-5.47E-05	-4.58000
0.14536	-5.61E-05	-6.10500
0.14035	-5.83E-05	-6.10500
0.13535	-5.98E-05	-6.10500
0.13034	-6.21E-05	-6.10500
0.12534	-6.37E-05	-6.10500
0.12033	-6.60E-05	-6.10500
0.11536	-6.77E-05	-7.63000
0.11035	-7.01E-05	-7.63000
0.10535	-7.16E-05	-7.63000
0.10034	-7.39E-05	-7.63000
0.09534	-7.53E-05	-7.63000
0.09036	-7.73E-05	-7.63000
0.08536	-7.85E-05	-7.63000
0.08035	-8.04E-05	-9.15500
0.07535	-8.14E-05	-10.68000
0.07034	-8.32E-05	-10.68000
0.06534	-8.41E-05	-10.68000
0.06036	-8.58E-05	-10.68000
0.05536	-8.66E-05	-10.68000
0.05035	-8.82E-05	-10.68000
0.04534	-8.88E-05	-10.68000
0.04034	-9.03E-05	-10.68000
0.03535	-9.07E-05	-12.21000
0.03035	-9.19E-05	-12.21000
0.02535	-9.22E-05	-12.21000
0.02036	-9.32E-05	-12.21000
0.01536	-9.32E-05	-12.21000
0.01036	-9.40E-05	-13.73500
0.00536	-9.38E-05	-15.26000
3.69E-04	-9.44E-05	-15.26000
-0.00463	-9.41E-05	-15.26000
-0.00963	-9.47E-05	-15.26000
-0.01462	-9.43E-05	-16.78500
-0.01962	-9.49E-05	-16.78500
-0.02462	-9.47E-05	-16.78500
-0.02961	-9.55E-05	-16.78500
-0.03461	-9.55E-05	-16.78500
-0.0396	-9.66E-05	-18.31000
-0.0446	-9.70E-05	-18.31000
-0.04959	-9.86E-05	-18.31000
-0.05463	-9.95E-05	-18.31000
-0.05963	-1.02E-04	-18.31000
-0.06464	-1.03E-04	-19.83500
-0.06964	-1.06E-04	-19.83500
-0.07462	-1.08E-04	-21.36500
-0.07962	-1.12E-04	-21.36500
-0.08463	-1.15E-04	-21.36500
-0.08963	-1.19E-04	-21.36500
-0.0946	-1.23E-04	-22.89000
-0.09961	-1.28E-04	-22.89000
-0.10461	-1.33E-04	-22.89000
-0.10962	-1.40E-04	-22.89000
-0.11462	-1.46E-04	-24.41500
-0.11963	-1.53E-04	-24.41500
-0.12463	-1.60E-04	-25.94000
-0.12961	-1.68E-04	-25.94000
-0.13461	-1.75E-04	-25.94000
-0.13962	-1.83E-04	-27.46500
-0.14462	-1.89E-04	-28.99000
-0.1496	-1.96E-04	-28.99000
-0.1546	-2.02E-04	-30.52000
-0.15961	-2.08E-04	-30.52000
-0.16461	-2.12E-04	-30.52000
-0.16962	-2.16E-04	-30.52000
-0.17459	-2.17E-04	-32.04500
-0.1796	-2.19E-04	-33.57000
-0.1846	-2.18E-04	-35.09500
-0.18961	-2.17E-04	-35.09500
-0.19461	-2.13E-04	-36.62000
-0.19962	-2.09E-04	-36.62000
-0.20459	-2.04E-04	-38.15000
-0.20959	-1.99E-04	-38.15000
-0.2146	-1.93E-04	-38.15000
-0.2196	-1.88E-04	-38.15000
-0.22461	-1.82E-04	-41.20000
-0.22958	-1.77E-04	-41.20000
-0.23459	-1.72E-04	-41.20000
-0.23959	-1.68E-04	-41.20000
-0.2446	-1.64E-04	-42.72500
-0.2496	-1.60E-04	-42.72500
-0.25458	-1.56E-04	-44.25000
-0.25958	-1.53E-04	-44.25000
-0.26459	-1.50E-04	-45.77500
-0.26959	-1.47E-04	-45.77500
-0.27457	-1.44E-04	-45.77500
-0.2796	-1.42E-04	-47.30500
-0.28458	-1.39E-04	-48.83000
-0.28958	-1.37E-04	-48.83000
-0.29459	-1.35E-04	-48.83000
-0.29956	-1.33E-04	-48.83000
-0.30457	-1.31E-04	-50.35500
-0.30957	-1.30E-04	-50.35500
-0.31458	-1.28E-04	-51.88000
-0.31958	-1.26E-04	-51.88000
-0.32459	-1.25E-04	-51.88000
-0.32956	-1.23E-04	-53.40500
-0.33459	-1.22E-04	-53.40500
-0.33957	-1.20E-04	-53.40500
-0.34457	-1.19E-04	-54.93000
-0.34958	-1.18E-04	-54.93000
-0.35458	-1.17E-04	-56.46000
-0.35956	-1.16E-04	-56.46000
-0.36456	-1.14E-04	-56.46000
-0.36957	-1.13E-04	-56.46000
-0.37457	-1.12E-04	-57.98500
-0.37955	-1.11E-04	-57.98500
-0.38455	-1.10E-04	-57.98500
-0.38956	-1.10E-04	-57.98500
-0.39456	-1.09E-04	-59.51000
-0.39957	-1.08E-04	-59.51000
-0.40457	-1.07E-04	-59.51000
-0.40955	-1.06E-04	-59.51000
-0.41455	-1.05E-04	-61.03500
-0.41956	-1.05E-04	-62.56000
-0.42456	-1.04E-04	-61.03500
-0.42957	-1.03E-04	-62.56000
-0.43457	-1.02E-04	-62.56000
-0.43954	-1.02E-04	-64.08500
-0.44455	-1.01E-04	-64.08500
-0.44955	-1.00E-04	-64.08500
-0.45456	-9.97E-05	-64.08500
-0.45956	-9.92E-05	-65.61500
-0.46454	-9.85E-05	-65.61500
-0.46954	-9.80E-05	-65.61500
-0.47455	-9.74E-05	-65.61500
-0.47952	-9.69E-05	-65.61500
-0.48453	-9.63E-05	-65.61500
-0.48953	-9.59E-05	-67.14000
-0.49454	-9.53E-05	-67.14000
-0.49927	-9.49E-05	-68.66500
-0.49579	-9.11E-05	-68.66500
-0.49078	-9.00E-05	-68.66500
-0.48578	-8.90E-05	-68.66500
-0.48077	-8.83E-05	-68.66500
-0.4758	-8.74E-05	-68.66500
-0.47076	-8.68E-05	-70.19000
-0.46579	-8.61E-05	-70.19000
-0.46078	-8.56E-05	-70.19000
-0.45578	-8.49E-05	-71.71500
-0.45078	-8.44E-05	-73.24500
-0.44577	-8.38E-05	-73.24500
-0.44077	-8.33E-05	-73.24500
-0.43576	-8.27E-05	-73.24500
-0.43076	-8.23E-05	-73.24500
-0.42575	-8.18E-05	-73.24500
-0.42078	-8.14E-05	-73.24500
-0.41574	-8.08E-05	-73.24500
-0.41077	-8.04E-05	-74.77000
-0.40576	-7.99E-05	-74.77000
-0.40076	-7.96E-05	-76.29500
-0.39575	-7.90E-05	-76.29500
-0.39075	-7.87E-05	-76.29500
-0.38574	-7.82E-05	-76.29500
-0.38074	-7.79E-05	-77.82000
-0.37573	-7.73E-05	-76.29500
-0.37076	-7.71E-05	-76.29500
-0.36575	-7.65E-05	-77.82000
-0.36075	-7.63E-05	-77.82000
-0.35574	-7.57E-05	-77.82000
-0.35074	-7.55E-05	-77.82000
-0.34573	-7.50E-05	-79.34500
-0.34076	-7.48E-05	-79.34500
-0.33575	-7.42E-05	-79.34500
-0.33075	-7.40E-05	-79.34500
-0.32574	-7.35E-05	-79.34500
-0.32074	-7.33E-05	-80.87000
-0.31573	-7.28E-05	-80.87000
-0.31073	-7.26E-05	-82.40000
-0.30573	-7.21E-05	-82.40000
-0.30075	-7.19E-05	-82.40000
-0.29575	-7.13E-05	-82.40000
-0.29074	-7.12E-05	-83.92500
-0.28574	-7.06E-05	-83.92500
-0.28073	-7.04E-05	-82.40000
-0.27573	-6.98E-05	-82.40000
-0.27072	-6.96E-05	-85.45000
-0.26572	-6.89E-05	-85.45000
-0.26071	-6.87E-05	-85.45000
-0.25571	-6.80E-05	-85.45000
-0.2507	-6.77E-05	-85.45000
-0.24573	-6.69E-05	-86.97500
-0.24072	-6.65E-05	-86.97500
-0.23572	-6.56E-05	-86.97500
-0.23071	-6.51E-05	-86.97500
-0.22574	-6.40E-05	-86.97500
-0.22073	-6.34E-05	-88.50000
-0.21573	-6.21E-05	-88.50000
-0.21072	-6.13E-05	-86.97500
-0.20572	-5.96E-05	-86.97500
-0.20071	-5.86E-05	-88.50000
-0.19571	-5.65E-05	-88.50000
-0.1907	-5.51E-05	-88.50000
-0.18573	-5.26E-05	-88.50000
-0.18073	-5.07E-05	-90.02500
-0.17572	-4.75E-05	-90.02500
-0.17072	-4.50E-05	-90.02500
-0.16571	-4.12E-05	-90.02500
-0.16071	-3.82E-05	-91.55500
-0.15573	-3.36E-05	-91.55500
-0.15073	-2.98E-05	-91.55500
-0.14572	-2.45E-05	-91.55500
-0.14072	-2.00E-05	-91.55500
-0.13571	-1.39E-05	-91.55500
-0.13071	-8.80E-06	-91.55500
-0.1257	-1.98E-06	-91.55500
-0.12073	3.84E-06	-93.08000
-0.11572	1.14E-05	-93.08000
-0.11072	1.80E-05	-93.08000
-0.10571	2.63E-05	-91.55500
-0.10071	3.35E-05	-91.55500
-0.0957	4.26E-05	-93.08000
-0.09073	5.07E-05	-93.08000
-0.08572	6.06E-05	-93.08000
-0.08072	6.95E-05	-91.55500
-0.07571	8.01E-05	-91.55500
-0.07071	8.97E-05	-91.55500
-0.0657	1.01E-04	-91.55500
-0.06073	1.11E-04	-91.55500
-0.05569	1.24E-04	-91.55500
-0.05072	1.35E-04	-88.50000
-0.04568	1.47E-04	-88.50000
-0.04069	1.59E-04	-88.50000
-0.03569	1.73E-04	-88.50000
-0.03069	1.85E-04	-86.97500
-0.0257	1.99E-04	-86.97500
-0.0207	2.12E-04	-86.97500
-0.0157	2.27E-04	-86.97500
-0.0107	2.41E-04	-83.92500
-0.0057	2.56E-04	-83.92500
-7.05E-04	2.71E-04	-80.87000
0.00429	2.87E-04	-80.87000
0.00929	3.01E-04	-79.34500
0.01429	3.18E-04	-79.34500
0.01929	3.33E-04	-76.29500
0.02429	3.50E-04	-76.29500
0.02928	3.65E-04	-74.77000
0.03428	3.82E-04	-73.24500
0.03928	3.98E-04	-70.19000
0.04427	4.15E-04	-70.19000
0.04927	4.31E-04	-68.66500
0.05429	4.48E-04	-65.61500
0.0593	4.64E-04	-64.08500
0.0643	4.81E-04	-62.56000
0.06931	4.97E-04	-61.03500
0.07428	5.14E-04	-57.98500
0.07928	5.29E-04	-56.46000
0.08429	5.44E-04	-53.40500
0.08929	5.57E-04	-51.88000
0.0943	5.71E-04	-48.83000
0.0993	5.80E-04	-47.30500
0.10431	5.88E-04	-45.77500
0.10931	5.90E-04	-44.25000
0.11432	5.90E-04	-38.15000
0.11929	5.83E-04	-38.15000
0.12433	5.73E-04	-35.09500
0.1293	5.55E-04	-33.57000
0.13431	5.31E-04	-30.52000
0.13931	4.92E-04	-30.52000
0.14432	4.41E-04	-25.94000
0.14932	3.77E-04	-25.94000
0.15433	3.15E-04	-22.89000
0.1593	2.61E-04	-22.89000
0.16431	2.20E-04	-18.31000
0.16931	1.86E-04	-18.31000
0.17432	1.62E-04	-18.31000
0.17932	1.43E-04	-18.31000
0.18433	1.29E-04	-16.78500
0.1893	1.17E-04	-16.78500
0.19431	1.09E-04	-15.26000
0.19931	1.01E-04	-15.26000
0.20432	9.64E-05	-15.26000
0.20932	9.10E-05	-15.26000
0.21432	8.79E-05	-12.21000
0.2193	8.39E-05	-12.21000
0.2243	8.19E-05	-12.21000
0.22931	7.88E-05	-12.21000
0.23431	7.75E-05	-12.21000
0.23932	7.50E-05	-12.21000
0.24432	7.42E-05	-10.68000
0.24933	7.21E-05	-10.68000
0.2543	7.16E-05	-10.68000
0.25931	6.96E-05	-10.68000
0.26431	6.93E-05	-10.68000
0.26932	6.75E-05	-10.68000
0.27429	6.73E-05	-9.15500
0.2793	6.54E-05	-9.15500
0.2843	6.52E-05	-9.15500
0.28931	6.33E-05	-7.63000
0.29431	6.30E-05	-7.63000
0.29929	6.11E-05	-7.63000
0.30432	6.07E-05	-7.63000
0.30933	5.87E-05	-7.63000
0.3143	5.83E-05	-6.10500
0.31931	5.64E-05	-7.63000
0.32431	5.60E-05	-6.10500
0.32932	5.40E-05	-6.10500
0.33432	5.37E-05	-6.10500
0.33929	5.19E-05	-6.10500
0.3443	5.17E-05	-6.10500
0.3493	4.99E-05	-6.10500
0.35431	4.98E-05	-4.58000
0.35931	4.81E-05	-4.58000
0.36432	4.81E-05	-4.58000
0.36929	4.65E-05	-4.58000
0.37433	4.67E-05	-4.58000
0.3793	4.53E-05	-4.58000
0.38431	4.52E-05	-15.26000
0.38931	4.40E-05	-15.26000
0.39432	4.43E-05	-4.58000
0.39929	4.32E-05	-6.10500
0.40433	4.37E-05	-4.58000
0.4093	4.27E-05	-4.58000
0.41431	4.33E-05	-4.58000
0.41931	4.24E-05	-4.58000
0.42432	4.31E-05	-3.05000
0.42932	4.23E-05	-3.05000
0.43433	4.31E-05	-3.05000
0.4393	4.24E-05	-3.05000
0.44431	4.33E-05	-3.05000
0.44931	4.27E-05	-3.05000
0.45432	4.37E-05	-3.05000
0.45932	4.31E-05	-3.05000
0.46432	4.42E-05	-1.52500
0.4693	4.37E-05	-1.52500
0.47433	4.49E-05	-1.52500
0.47931	4.44E-05	-1.52500
0.48431	4.57E-05	-3.05000
0.48932	4.53E-05	-3.05000
0.49432	4.66E-05	0.00000
0.49271	1.73E-05	0.00000
0.4877	8.89E-06	0.00000
0.48273	1.92E-06	0.00000
0.47772	-1.54E-06	-1.52500
0.47272	-5.39E-06	-1.52500
0.46771	-6.83E-06	0.00000
0.46271	-9.31E-06	0.00000
0.4577	-9.82E-06	0.00000
0.4527	-1.17E-05	0.00000
0.44769	-1.17E-05	0.00000
0.44272	-1.33E-05	0.00000
0.43771	-1.31E-05	0.00000
0.43271	-1.45E-05	0.00000
0.4277	-1.42E-05	0.00000
0.4227	-1.55E-05	0.00000
0.41769	-1.52E-05	0.00000
0.41269	-1.65E-05	0.00000
0.40768	-1.61E-05	0.00000
0.40268	-1.74E-05	0.00000
0.39771	-1.71E-05	0.00000
0.39267	-1.83E-05	0.00000
0.3877	-1.80E-05	0.00000
0.38269	-1.92E-05	0.00000
0.37769	-1.89E-05	0.00000
0.37271	-2.01E-05	-1.52500
0.36771	-1.98E-05	0.00000
0.3627	-2.11E-05	0.00000
0.3577	-2.07E-05	-1.52500
0.35269	-2.20E-05	-1.52500
0.34769	-2.16E-05	0.00000
0.34271	-2.29E-05	-1.52500
0.33771	-2.25E-05	-1.52500
0.3327	-2.38E-05	-1.52500
0.3277	-2.34E-05	-1.52500
0.32269	-2.46E-05	-1.52500
0.31769	-2.43E-05	-1.52500
0.31268	-2.55E-05	0.00000
0.30768	-2.52E-05	-1.52500
0.3027	-2.64E-05	-3.05000
0.2977	-2.61E-05	-3.05000
0.29269	-2.74E-05	-3.05000
0.28769	-2.70E-05	-3.05000
0.28268	-2.83E-05	-3.05000
0.27771	-2.80E-05	-3.05000
0.27271	-2.93E-05	-3.05000
0.2677	-2.90E-05	-3.05000
0.2627	-3.03E-05	-3.05000
0.25769	-3.01E-05	-3.05000
0.25269	-3.14E-05	-4.58000
0.24771	-3.12E-05	-3.05000
0.24271	-3.26E-05	-3.05000
0.2377	-3.25E-05	-3.05000
0.23273	-3.39E-05	-3.05000
0.22769	-3.38E-05	-3.05000
0.22269	-3.54E-05	-4.58000
0.21771	-3.53E-05	-4.58000
0.21271	-3.69E-05	-4.58000
0.2077	-3.70E-05	-4.58000
0.2027	-3.87E-05	-4.58000
0.19769	-3.88E-05	-4.58000
0.19272	-4.06E-05	-6.10500
0.18771	-4.08E-05	-6.10500
0.18271	-4.27E-05	-4.58000
0.1777	-4.31E-05	-4.58000
0.1727	-4.51E-05	-4.58000
0.16769	-4.56E-05	-4.58000
0.16272	-4.78E-05	-4.58000
0.15768	-4.85E-05	-4.58000
0.15271	-5.09E-05	-6.10500
0.14771	-5.17E-05	-7.63000
0.1427	-5.43E-05	-7.63000
0.1377	-5.52E-05	-7.63000
0.13269	-5.79E-05	-7.63000
0.12769	-5.90E-05	-7.63000
0.12274	-6.18E-05	-7.63000
0.11771	-6.29E-05	-7.63000
0.1127	-6.57E-05	-7.63000
0.10773	-6.68E-05	-7.63000
0.10269	-6.95E-05	-7.63000
0.09772	-7.06E-05	-7.63000
0.09271	-7.32E-05	-7.63000
0.08771	-7.42E-05	-9.15500
0.0827	-7.67E-05	-9.15500
0.07773	-7.76E-05	-9.15500
0.07269	-8.02E-05	-10.68000
0.06772	-8.10E-05	-10.68000
0.06271	-8.35E-05	-10.68000
0.05771	-8.43E-05	-10.68000
0.05273	-8.66E-05	-12.21000
0.0477	-8.73E-05	-12.21000
0.0427	-8.95E-05	-12.21000
0.03771	-8.99E-05	-12.21000
0.03271	-9.19E-05	-12.21000
0.02771	-9.21E-05	-13.73500
0.02271	-9.38E-05	-13.73500
0.01772	-9.37E-05	-13.73500
0.01272	-9.51E-05	-15.26000
0.00772	-9.48E-05	-15.26000
0.00273	-9.60E-05	-15.26000
-0.00227	-9.56E-05	-15.26000
-0.00727	-9.67E-05	-16.78500
-0.01226	-9.62E-05	-16.78500
-0.01726	-9.73E-05	-16.78500
-0.02226	-9.69E-05	-16.78500
-0.02726	-9.82E-05	-18.31000
-0.03225	-9.80E-05	-18.31000
-0.03725	-9.96E-05	-19.83500
-0.04225	-9.98E-05	-18.31000
-0.04724	-1.02E-04	-19.83500
-0.05228	-1.03E-04	-19.83500
-0.05728	-1.05E-04	-19.83500
-0.06226	-1.07E-04	-19.83500
-0.06726	-1.10E-04	-21.36500
-0.07227	-1.12E-04	-21.36500
-0.07727	-1.16E-04	-22.89000
-0.08228	-1.20E-04	-22.89000
-0.08728	-1.25E-04	-22.89000
-0.09229	-1.29E-04	-22.89000
-0.09726	-1.36E-04	-22.89000
-0.10226	-1.42E-04	-22.89000
-0.10727	-1.49E-04	-25.94000
-0.11224	-1.56E-04	-25.94000
-0.11728	-1.65E-04	-25.94000
-0.12225	-1.73E-04	-25.94000
-0.12726	-1.83E-04	-27.46500
-0.13226	-1.91E-04	-27.46500
-0.13727	-2.01E-04	-27.46500
-0.14224	-2.08E-04	-28.99000
-0.14725	-2.18E-04	-30.52000
-0.15225	-2.25E-04	-30.52000
-0.15726	-2.33E-04	-32.04500
-0.16226	-2.39E-04	-32.04500
-0.16727	-2.45E-04	-35.09500
-0.17224	-2.49E-04	-35.09500
-0.17725	-2.53E-04	-35.09500
-0.18225	-2.54E-04	-35.09500
-0.18726	-2.55E-04	-36.62000
-0.19223	-2.52E-04	-38.15000
-0.19724	-2.50E-04	-39.67500
-0.20224	-2.44E-04	-41.20000
-0.20724	-2.39E-04	-42.72500
-0.21225	-2.31E-04	-42.72500
-0.21725	-2.25E-04	-44.25000
-0.22223	-2.17E-04	-44.25000
-0.22723	-2.10E-04	-44.25000
-0.23224	-2.03E-04	-45.77500
-0.23724	-1.98E-04	-45.77500
-0.24225	-1.91E-04	-47.30500
-0.24725	-1.86E-04	-47.30500
-0.25223	-1.81E-04	-48.83000
-0.25723	-1.77E-04	-48.83000
-0.26224	-1.72E-04	-50.35500
-0.26724	-1.69E-04	-50.35500
-0.27225	-1.65E-04	-50.35500
-0.27725	-1.62E-04	-51.88000
-0.28223	-1.58E-04	-53.40500
-0.28723	-1.56E-04	-53.40500
-0.29224	-1.52E-04	-53.40500
-0.29724	-1.50E-04	-54.93000
-0.30222	-1.47E-04	-56.46000
-0.30722	-1.46E-04	-56.46000
-0.31223	-1.43E-04	-56.46000
-0.31723	-1.41E-04	-56.46000
-0.3222	-1.39E-04	-57.98500
-0.32724	-1.37E-04	-57.98500
-0.33221	-1.35E-04	-57.98500
-0.33722	-1.34E-04	-59.51000
-0.34222	-1.32E-04	-59.51000
-0.34723	-1.31E-04	-59.51000
-0.3522	-1.29E-04	-61.03500
-0.35721	-1.28E-04	-59.51000
-0.36221	-1.26E-04	-62.56000
-0.36722	-1.25E-04	-62.56000
-0.37222	-1.23E-04	-64.08500
-0.3772	-1.22E-04	-62.56000
-0.3822	-1.21E-04	-65.61500
-0.38721	-1.20E-04	-65.61500
-0.39221	-1.18E-04	-65.61500
-0.39722	-1.18E-04	-65.61500
-0.40222	-1.16E-04	-67.14000
-0.4072	-1.16E-04	-67.14000
-0.4122	-1.14E-04	-67.14000
-0.41721	-1.14E-04	-67.14000
-0.42221	-1.12E-04	-68.66500
-0.42722	-1.12E-04	-68.66500
-0.43219	-1.10E-04	-70.19000
-0.43719	-1.10E-04	-70.19000
-0.4422	-1.09E-04	-70.19000
-0.4472	-1.08E-04	-70.19000
-0.45221	-1.07E-04	-71.71500
-0.45718	-1.07E-04	-71.71500
-0.46219	-1.06E-04	-73.24500
-0.46719	-1.05E-04	-73.24500
-0.4722	-1.04E-04	-73.24500
-0.4772	-1.04E-04	-73.24500
-0.48221	-1.03E-04	-74.77000
-0.48718	-1.03E-04	-74.77000
-0.49219	-1.02E-04	-76.29500
-0.49719	-1.01E-04	-76.29500
-0.49814	-9.80E-05	-76.29500
-0.49313	-9.65E-05	-76.29500
-0.48813	-9.49E-05	-77.82000
-0.48312	-9.44E-05	-77.82000
-0.47812	-9.31E-05	-77.82000
-0.47311	-9.28E-05	-77.82000
-0.46811	-9.16E-05	-77.82000
-0.4631	-9.13E-05	-77.82000
-0.45813	-9.01E-05	-79.34500
-0.45313	-8.99E-05	-79.34500
-0.44809	-8.88E-05	-79.34500
-0.44312	-8.87E-05	-79.34500
-0.43811	-8.76E-05	-80.87000
-0.43311	-8.75E-05	-80.87000
-0.4281	-8.64E-05	-82.40000
-0.4231	-8.63E-05	-82.40000
-0.41809	-8.53E-05	-82.40000
-0.41312	-8.52E-05	-82.40000
-0.40808	-8.42E-05	-83.92500
-0.40311	-8.42E-05	-83.92500
-0.3981	-8.32E-05	-82.40000
-0.3931	-8.32E-05	-82.40000
-0.38809	-8.22E-05	-85.45000
-0.38309	-8.22E-05	-83.92500
-0.37808	-8.12E-05	-85.45000
-0.37311	-8.12E-05	-85.45000
-0.36807	-8.03E-05	-86.97500
-0.3631	-8.03E-05	-86.97500
-0.35809	-7.94E-05	-86.97500
-0.35309	-7.94E-05	-88.50000
-0.34808	-7.85E-05	-86.97500
-0.34311	-7.86E-05	-86.97500
-0.33807	-7.76E-05	-88.50000
-0.3331	-7.77E-05	-88.50000
-0.32809	-7.68E-05	-88.50000
-0.32309	-7.69E-05	-88.50000
-0.31808	-7.59E-05	-90.02500
-0.31308	-7.60E-05	-90.02500
-0.30807	-7.51E-05	-90.02500
-0.30307	-7.52E-05	-90.02500
-0.29807	-7.43E-05	-91.55500
-0.29309	-7.44E-05	-91.55500
-0.28809	-7.34E-05	-93.08000
-0.28308	-7.35E-05	-93.08000
-0.27808	-7.25E-05	-93.08000
-0.27307	-7.26E-05	-93.08000
-0.26807	-7.16E-05	-93.08000
-0.26306	-7.16E-05	-93.08000
-0.25806	-7.06E-05	-94.60500
-0.25305	-7.06E-05	-94.60500
-0.24808	-6.94E-05	-94.60500
-0.24307	-6.94E-05	-94.60500
-0.23807	-6.81E-05	-96.13000
-0.23309	-6.79E-05	-96.13000
-0.22806	-6.65E-05	-96.13000
-0.22308	-6.62E-05	-96.13000
-0.21808	-6.46E-05	-96.13000
-0.21307	-6.41E-05	-96.13000
-0.20807	-6.22E-05	-96.13000
-0.20306	-6.14E-05	-97.65500
-0.19806	-5.91E-05	-97.65500
-0.19308	-5.79E-05	-97.65500
-0.18805	-5.52E-05	-99.18500
-0.18307	-5.36E-05	-99.18500
-0.17807	-5.04E-05	-99.18500
-0.17307	-4.81E-05	-99.18500
-0.16806	-4.42E-05	-99.18500
-0.16309	-4.13E-05	-99.18500
-0.15805	-3.68E-05	-99.18500
-0.15308	-3.32E-05	-99.18500
-0.14807	-2.78E-05	-100.71000
-0.14307	-2.35E-05	-100.71000
-0.13806	-1.74E-05	-100.71000
-0.13306	-1.24E-05	-100.71000
-0.12805	-5.59E-06	-100.71000
-0.12308	1.75E-07	-102.23500
-0.11807	7.70E-06	-100.71000
-0.11307	1.42E-05	-100.71000
-0.10806	2.24E-05	-102.23500
-0.10306	2.97E-05	-102.23500
-0.09805	3.87E-05	-102.23500
-0.09308	4.67E-05	-100.71000
-0.08807	5.65E-05	-100.71000
-0.08307	6.53E-05	-100.71000
-0.07806	7.59E-05	-100.71000
-0.07306	8.55E-05	-100.71000
-0.06805	9.68E-05	-99.18500
-0.06305	1.07E-04	-99.18500
-0.05807	1.19E-04	-99.18500
-0.05307	1.30E-04	-99.18500
-0.04803	1.43E-04	-99.18500
-0.04304	1.55E-04	-97.65500
-0.03804	1.68E-04	-97.65500
-0.03304	1.80E-04	-96.13000
-0.02805	1.95E-04	-96.13000
-0.02305	2.08E-04	-96.13000
-0.01805	2.22E-04	-96.13000
-0.01306	2.36E-04	-94.60500
-0.00805	2.51E-04	-94.60500
-0.00306	2.66E-04	-91.55500
0.00194	2.82E-04	-91.55500
0.00693	2.96E-04	-90.02500
0.01194	3.13E-04	-91.55500
0.01693	3.28E-04	-88.50000
0.02193	3.45E-04	-86.97500
0.02693	3.61E-04	-82.40000
0.03193	3.78E-04	-83.92500
0.03692	3.94E-04	-80.87000
0.04193	4.11E-04	-80.87000
0.04692	4.27E-04	-77.82000
0.05194	4.45E-04	-77.82000
0.05695	4.61E-04	-73.24500
0.06195	4.79E-04	-74.77000
0.06693	4.95E-04	-70.19000
0.07193	5.13E-04	-70.19000
0.07693	5.29E-04	-65.61500
0.08194	5.47E-04	-65.61500
0.08694	5.62E-04	-61.03500
0.09195	5.79E-04	-61.03500
0.09692	5.93E-04	-56.46000
0.10196	6.08E-04	-56.46000
0.10696	6.20E-04	-50.35500
0.11194	6.30E-04	-50.35500
0.11694	6.37E-04	-44.25000
0.12198	6.40E-04	-45.77500
0.12695	6.37E-04	-39.67500
0.13196	6.30E-04	-39.67500
0.13696	6.17E-04	-33.57000
0.14194	5.96E-04	-33.57000
0.14694	5.64E-04	-28.99000
0.15195	5.17E-04	-28.99000
0.15695	4.51E-04	-24.41500
0.16196	3.79E-04	-24.41500
0.16696	3.13E-04	-19.83500
0.17197	2.59E-04	-19.83500
0.17697	2.17E-04	-18.31000
0.18195	1.86E-04	-18.31000
0.18698	1.61E-04	-16.78500
0.19196	1.43E-04	-16.78500
0.19696	1.28E-04	-15.26000
0.20197	1.17E-04	-15.26000
0.20694	1.08E-04	-13.73500
0.21198	1.01E-04	-13.73500
0.21698	9.48E-05	-12.21000
0.22195	9.06E-05	-13.73500
0.22696	8.61E-05	-12.21000
0.23196	8.33E-05	-12.21000
0.23694	7.99E-05	-10.68000
0.24197	7.81E-05	-12.21000
0.24698	7.55E-05	-10.68000
0.25195	7.42E-05	-10.68000
0.25696	7.21E-05	-10.68000
0.26196	7.12E-05	-10.68000
0.26694	6.94E-05	-9.15500
0.27194	6.87E-05	-9.15500
0.27695	6.70E-05	-7.63000
0.28195	6.64E-05	-7.63000
0.28696	6.47E-05	-7.63000
0.29193	6.41E-05	-7.63000
0.29694	6.24E-05	-7.63000
0.30197	6.17E-05	-7.63000
0.30695	6.00E-05	-7.63000
0.31195	5.93E-05	-7.63000
0.31696	5.76E-05	-6.10500
0.32196	5.69E-05	-7.63000
0.32697	5.53E-05	-6.10500
0.33194	5.46E-05	-6.10500
0.33694	5.30E-05	-4.58000
0.34195	5.25E-05	-6.10500
0.34695	5.10E-05	-4.58000
0.35193	5.05E-05	-6.10500
0.35696	4.92E-05	-6.10500
0.36194	4.87E-05	-6.10500
0.36694	4.75E-05	-4.58000
0.37198	4.72E-05	-4.58000
0.37695	4.61E-05	-4.58000
0.38196	4.60E-05	-4.58000
0.38696	4.47E-05	-3.05000
0.39194	4.47E-05	-3.05000
0.39694	4.39E-05	-4.58000
0.40195	4.40E-05	-6.10500
0.40695	4.33E-05	-3.05000
0.41196	4.35E-05	-3.05000
0.41693	4.29E-05	-3.05000
0.42197	4.32E-05	-4.58000
0.42697	4.28E-05	-3.05000
0.43195	4.32E-05	-3.05000
0.43698	4.28E-05	-3.05000
0.44196	4.33E-05	-3.05000
0.44696	4.31E-05	-3.05000
0.45197	4.36E-05	-3.05000
0.45694	4.35E-05	-3.05000
0.46198	4.41E-05	-3.05000
0.46698	4.40E-05	-1.52500
0.47195	4.47E-05	-3.05000
0.47696	4.47E-05	-1.52500
0.48196	4.54E-05	-1.52500
0.48694	4.55E-05	0.00000
0.49197	4.63E-05	-1.52500
0.49008	1.26E-05	-1.52500
0.48505	4.88E-06	0.00000
0.48004	7.87E-08	0.00000
0.47507	-3.75E-06	0.00000
0.47003	-6.06E-06	0.00000
0.46506	-8.26E-06	0.00000
0.46005	-9.46E-06	-1.52500
0.45505	-1.09E-05	0.00000
0.45004	-1.16E-05	0.00000
0.44504	-1.26E-05	0.00000
0.44003	-1.30E-05	0.00000
0.43506	-1.39E-05	0.00000
0.43005	-1.42E-05	-1.52500
0.42502	-1.50E-05	0.00000
0.42004	-1.52E-05	0.00000
0.41504	-1.59E-05	0.00000
0.41003	-1.62E-05	-1.52500
0.40503	-1.69E-05	0.00000
0.40002	-1.71E-05	0.00000
0.39505	-1.78E-05	0.00000
0.39005	-1.80E-05	-1.52500
0.38504	-1.87E-05	-1.52500
0.38004	-1.89E-05	-1.52500
0.37506	-1.96E-05	-1.52500
0.37006	-1.98E-05	-1.52500
0.36505	-2.05E-05	-1.52500
0.36005	-2.08E-05	-1.52500
0.35504	-2.14E-05	0.00000
0.35004	-2.17E-05	-3.05000
0.34503	-2.23E-05	-1.52500
0.34003	-2.26E-05	-1.52500
0.33505	-2.32E-05	-1.52500
0.33002	-2.35E-05	-3.05000
0.32504	-2.41E-05	-1.52500
0.32004	-2.44E-05	-1.52500
0.31503	-2.50E-05	-1.52500
0.31006	-2.53E-05	-1.52500
0.30502	-2.59E-05	-1.52500
0.30002	-2.62E-05	-1.52500
0.29504	-2.68E-05	-1.52500
0.29004	-2.71E-05	-3.05000
0.28503	-2.77E-05	-3.05000
0.28003	-2.81E-05	-3.05000
0.27502	-2.87E-05	-3.05000
0.27005	-2.91E-05	-3.05000
0.26505	-2.97E-05	-3.05000
0.26004	-3.02E-05	-4.58000
0.25504	-3.08E-05	-3.05000
0.25006	-3.14E-05	-4.58000
0.24506	-3.20E-05	-3.05000
0.24005	-3.26E-05	-4.58000
0.23505	-3.33E-05	-3.05000
0.23004	-3.40E-05	-3.05000
0.22504	-3.47E-05	-3.05000
0.22003	-3.55E-05	-4.58000
0.21506	-3.63E-05	-4.58000
0.21005	-3.71E-05	-4.58000
0.20505	-3.80E-05	-4.58000
0.20004	-3.89E-05	-4.58000
0.19504	-3.99E-05	-4.58000
0.19003	-4.10E-05	-4.58000
0.18506	-4.20E-05	-4.58000
0.18005	-4.32E-05	-6.10500
0.17505	-4.44E-05	-4.58000
0.17004	-4.58E-05	-6.10500
0.16504	-4.71E-05	-6.10500
0.16003	-4.86E-05	-6.10500
0.15506	-5.01E-05	-6.10500
0.15005	-5.18E-05	-6.10500
0.14505	-5.35E-05	-6.10500
0.14005	-5.54E-05	-7.63000
0.13504	-5.71E-05	-6.10500
0.13007	-5.91E-05	-7.63000
0.12506	-6.09E-05	-7.63000
0.12006	-6.30E-05	-7.63000
0.11505	-6.49E-05	-7.63000
0.11005	-6.70E-05	-7.63000
0.10504	-6.88E-05	-7.63000
0.10007	-7.08E-05	-7.63000
0.09503	-7.25E-05	-7.63000
0.09006	-7.45E-05	-9.15500
0.08505	-7.61E-05	-7.63000
0.08005	-7.80E-05	-9.15500
0.07504	-7.96E-05	-9.15500
0.07007	-8.15E-05	-12.21000
0.06503	-8.29E-05	-10.68000
0.06006	-8.48E-05	-10.68000
0.05505	-8.61E-05	-10.68000
0.05005	-8.79E-05	-10.68000
0.04504	-8.90E-05	-10.68000
0.04005	-9.05E-05	-13.73500
0.03505	-9.15E-05	-12.21000
0.03005	-9.28E-05	-13.73500
0.02505	-9.34E-05	-12.21000
0.02006	-9.45E-05	-13.73500
0.01506	-9.48E-05	-13.73500
0.01006	-9.56E-05	-15.26000
0.00507	-9.58E-05	-13.73500
7.02E-05	-9.64E-05	-15.26000
-0.00493	-9.65E-05	-15.26000
-0.00992	-9.70E-05	-16.78500
-0.01492	-9.70E-05	-16.78500
-0.01992	-9.77E-05	-16.78500
-0.02491	-9.79E-05	-16.78500
-0.02991	-9.88E-05	-18.31000
-0.03491	-9.93E-05	-16.78500
-0.0399	-1.01E-04	-18.31000
-0.0449	-1.01E-04	-18.31000
-0.0499	-1.03E-04	-19.83500
-0.05493	-1.05E-04	-19.83500
-0.05994	-1.07E-04	-19.83500
-0.06491	-1.10E-04	-19.83500
-0.06992	-1.13E-04	-19.83500
-0.07492	-1.16E-04	-19.83500
-0.07993	-1.21E-04	-21.36500
-0.08493	-1.25E-04	-22.89000
-0.08994	-1.30E-04	-22.89000
-0.09491	-1.36E-04	-22.89000
-0.09991	-1.43E-04	-24.41500
-0.10492	-1.50E-04	-24.41500
-0.10992	-1.58E-04	-25.94000
-0.11493	-1.66E-04	-25.94000
-0.1199	-1.75E-04	-25.94000
-0.12491	-1.84E-04	-25.94000
-0.12991	-1.94E-04	-27.46500
-0.13492	-2.03E-04	-27.46500
-0.13992	-2.13E-04	-28.99000
-0.14493	-2.21E-04	-28.99000
-0.1499	-2.31E-04	-30.52000
-0.15491	-2.38E-04	-32.04500
-0.15991	-2.46E-04	-32.04500
-0.16492	-2.53E-04	-33.57000
-0.16992	-2.59E-04	-33.57000
-0.1749	-2.63E-04	-35.09500
-0.1799	-2.66E-04	-36.62000
-0.18491	-2.67E-04	-36.62000
-0.18991	-2.67E-04	-36.62000
-0.19492	-2.65E-04	-41.20000
-0.19992	-2.61E-04	-41.20000
-0.20489	-2.55E-04	-41.20000
-0.2099	-2.49E-04	-41.20000
-0.2149	-2.41E-04	-44.25000
-0.21991	-2.34E-04	-44.25000
-0.22491	-2.26E-04	-45.77500
-0.22989	-2.19E-04	-45.77500
-0.23489	-2.11E-04	-47.30500
-0.2399	-2.05E-04	-47.30500
-0.2449	-1.99E-04	-48.83000
-0.24988	-1.93E-04	-48.83000
-0.25488	-1.88E-04	-50.35500
-0.25989	-1.83E-04	-50.35500
-0.26489	-1.79E-04	-51.88000
-0.2699	-1.75E-04	-51.88000
-0.2749	-1.71E-04	-53.40500
-0.27991	-1.68E-04	-54.93000
-0.28488	-1.64E-04	-56.46000
-0.28989	-1.61E-04	-56.46000
-0.29489	-1.58E-04	-56.46000
-0.2999	-1.56E-04	-56.46000
-0.30487	-1.53E-04	-57.98500
-0.30988	-1.51E-04	-57.98500
-0.31488	-1.48E-04	-59.51000
-0.31989	-1.46E-04	-59.51000
-0.32489	-1.44E-04	-61.03500
-0.32989	-1.42E-04	-61.03500
-0.33487	-1.40E-04	-61.03500
-0.33987	-1.38E-04	-61.03500
-0.34488	-1.37E-04	-64.08500
-0.34988	-1.35E-04	-64.08500
-0.35489	-1.33E-04	-65.61500
-0.35986	-1.32E-04	-65.61500
-0.36487	-1.30E-04	-65.61500
-0.36987	-1.29E-04	-65.61500
-0.37488	-1.28E-04	-67.14000
-0.37988	-1.26E-04	-67.14000
-0.38486	-1.25E-04	-67.14000
-0.38986	-1.24E-04	-68.66500
-0.39487	-1.22E-04	-68.66500
-0.39987	-1.21E-04	-68.66500
-0.40488	-1.20E-04	-70.19000
-0.40985	-1.19E-04	-70.19000
-0.41486	-1.18E-04	-70.19000
-0.41986	-1.17E-04	-70.19000
-0.42487	-1.16E-04	-71.71500
-0.42987	-1.15E-04	-71.71500
-0.43488	-1.14E-04	-73.24500
-0.43985	-1.13E-04	-73.24500
-0.44485	-1.12E-04	-74.77000
-0.44986	-1.12E-04	-74.77000
-0.45486	-1.11E-04	-74.77000
-0.45987	-1.10E-04	-74.77000
-0.46487	-1.09E-04	-76.29500
-0.46985	-1.08E-04	-76.29500
-0.47485	-1.07E-04	-76.29500
-0.47986	-1.07E-04	-76.29500
-0.48486	-1.06E-04	-77.82000
-0.48987	-1.05E-04	-77.82000
-0.49484	-1.05E-04	-77.82000
-0.49988	-1.04E-04	-77.82000
-0.49545	-1.00E-04	-79.34500
-0.49045	-9.89E-05	-79.34500
-0.48544	-9.78E-05	-80.87000
-0.48047	-9.70E-05	-80.87000
-0.47546	-9.60E-05	-80.87000
-0.47046	-9.53E-05	-80.87000
-0.46545	-9.44E-05	-80.87000
-0.46045	-9.38E-05	-80.87000
-0.45544	-9.30E-05	-82.40000
-0.45044	-9.24E-05	-82.40000
-0.44543	-9.16E-05	-83.92500
-0.44043	-9.11E-05	-83.92500
-0.43546	-9.03E-05	-85.45000
-0.43045	-8.98E-05	-85.45000
-0.42545	-8.91E-05	-86.97500
-0.42044	-8.86E-05	-86.97500
-0.41544	-8.79E-05	-85.45000
-0.41043	-8.75E-05	-85.45000
-0.40543	-8.68E-05	-86.97500
-0.40042	-8.64E-05	-86.97500
-0.39542	-8.57E-05	-86.97500
-0.39041	-8.53E-05	-86.97500
-0.38544	-8.47E-05	-86.97500
-0.38043	-8.43E-05	-88.50000
-0.37543	-8.37E-05	-88.50000
-0.37042	-8.33E-05	-88.50000
-0.36542	-8.27E-05	-90.02500
-0.36041	-8.24E-05	-90.02500
-0.35541	-8.17E-05	-90.02500
-0.35043	-8.14E-05	-91.55500
-0.3454	-8.08E-05	-91.55500
-0.34042	-8.05E-05	-91.55500
-0.33542	-7.99E-05	-91.55500
-0.33041	-7.96E-05	-91.55500
-0.32541	-7.90E-05	-93.08000
-0.3204	-7.87E-05	-93.08000
-0.3154	-7.81E-05	-94.60500
-0.31042	-7.79E-05	-94.60500
-0.30542	-7.72E-05	-94.60500
-0.30041	-7.70E-05	-94.60500
-0.29541	-7.64E-05	-94.60500
-0.29041	-7.61E-05	-96.13000
-0.2854	-7.55E-05	-96.13000
-0.2804	-7.52E-05	-96.13000
-0.27539	-7.45E-05	-96.13000
-0.27042	-7.43E-05	-96.13000
-0.26541	-7.35E-05	-96.13000
-0.26041	-7.32E-05	-96.13000
-0.2554	-7.24E-05	-96.13000
-0.2504	-7.21E-05	-97.65500
-0.24539	-7.12E-05	-97.65500
-0.24042	-7.08E-05	-97.65500
-0.23541	-6.97E-05	-99.18500
-0.23041	-6.92E-05	-99.18500
-0.2254	-6.80E-05	-99.18500
-0.2204	-6.74E-05	-100.71000
-0.21539	-6.59E-05	-100.71000
-0.21039	-6.51E-05	-100.71000
-0.20538	-6.33E-05	-100.71000
-0.20041	-6.21E-05	-100.71000
-0.1954	-5.99E-05	-100.71000
-0.1904	-5.84E-05	-103.76000
-0.18539	-5.57E-05	-103.76000
-0.18039	-5.37E-05	-102.23500
-0.17538	-5.04E-05	-102.23500
-0.17041	-4.78E-05	-102.23500
-0.16537	-4.38E-05	-103.76000
-0.1604	-4.06E-05	-103.76000
-0.1554	-3.58E-05	-103.76000
-0.15039	-3.19E-05	-105.28500
-0.14539	-2.64E-05	-105.28500
-0.14038	-2.17E-05	-103.76000
-0.13541	-1.54E-05	-103.76000
-0.1304	-1.01E-05	-105.28500
-0.1254	-3.07E-06	-105.28500
-0.12039	2.94E-06	-105.28500
-0.11539	1.08E-05	-105.28500
-0.11038	1.75E-05	-105.28500
-0.10541	2.60E-05	-105.28500
-0.1004	3.35E-05	-105.28500
-0.0954	4.28E-05	-105.28500
-0.09039	5.11E-05	-105.28500
-0.08539	6.12E-05	-105.28500
-0.08038	7.02E-05	-105.28500
-0.07538	8.11E-05	-105.28500
-0.07037	9.09E-05	-105.28500
-0.0654	1.03E-04	-105.28500
-0.06039	1.13E-04	-103.76000
-0.05539	1.25E-04	-103.76000
-0.05038	1.36E-04	-103.76000
-0.04536	1.50E-04	-103.76000
-0.04037	1.61E-04	-102.23500
-0.03537	1.75E-04	-102.23500
-0.03037	1.88E-04	-102.23500
-0.02538	2.02E-04	-102.23500
-0.02038	2.15E-04	-99.18500
-0.01538	2.30E-04	-99.18500
-0.01038	2.44E-04	-96.13000
-0.00538	2.60E-04	-96.13000
-3.85E-04	2.74E-04	-96.13000
0.00461	2.90E-04	-96.13000
0.00961	3.05E-04	-93.08000
0.01461	3.22E-04	-93.08000
0.01961	3.37E-04	-90.02500
0.02461	3.54E-04	-90.02500
0.0296	3.70E-04	-86.97500
0.0346	3.88E-04	-86.97500
0.0396	4.04E-04	-82.40000
0.0446	4.21E-04	-82.40000
0.04959	4.38E-04	-79.34500
0.05463	4.56E-04	-79.34500
0.05963	4.72E-04	-76.29500
0.06461	4.90E-04	-76.29500
0.06961	5.07E-04	-71.71500
0.07462	5.25E-04	-71.71500
0.07962	5.41E-04	-67.14000
0.08463	5.59E-04	-67.14000
0.08963	5.75E-04	-62.56000
0.0946	5.92E-04	-62.56000
0.09961	6.06E-04	-57.98500
0.10461	6.22E-04	-57.98500
0.10962	6.34E-04	-51.88000
0.11462	6.47E-04	-51.88000
0.11963	6.55E-04	-45.77500
0.12463	6.60E-04	-45.77500
0.12964	6.60E-04	-41.20000
0.13461	6.56E-04	-41.20000
0.13962	6.44E-04	-35.09500
0.14462	6.27E-04	-35.09500
0.14963	5.98E-04	-27.46500
0.15463	5.56E-04	-28.99000
0.15961	4.93E-04	-24.41500
0.16461	4.19E-04	-24.41500
0.16962	3.45E-04	-19.83500
0.17462	2.85E-04	-21.36500
0.17963	2.36E-04	-18.31000
0.18466	2.00E-04	-18.31000
0.18961	1.72E-04	-16.78500
0.19464	1.51E-04	-16.78500
0.19965	1.34E-04	-15.26000
0.20462	1.22E-04	-15.26000
0.20963	1.11E-04	-12.21000
0.21463	1.04E-04	-12.21000
0.2196	9.69E-05	-12.21000
0.22464	9.24E-05	-12.21000
0.22961	8.72E-05	-10.68000
0.23462	8.44E-05	-10.68000
0.23962	8.05E-05	-10.68000
0.24463	7.87E-05	-10.68000
0.24963	7.57E-05	-9.15500
0.25461	7.46E-05	-9.15500
0.25961	7.21E-05	-9.15500
0.26462	7.14E-05	-9.15500
0.26962	6.92E-05	-9.15500
0.27463	6.87E-05	-9.15500
0.27963	6.67E-05	-7.63000
0.28461	6.63E-05	-7.63000
0.28961	6.43E-05	-7.63000
0.29462	6.39E-05	-7.63000
0.29962	6.19E-05	-7.63000
0.30463	6.15E-05	-7.63000
0.30963	5.95E-05	-7.63000
0.31461	5.91E-05	-7.63000
0.31961	5.70E-05	-7.63000
0.32462	5.67E-05	-6.10500
0.32962	5.47E-05	-6.10500
0.33463	5.44E-05	-6.10500
0.33963	5.25E-05	-6.10500
0.3446	5.23E-05	-6.10500
0.34964	5.04E-05	-4.58000
0.35461	5.04E-05	-4.58000
0.35962	4.86E-05	-4.58000
0.36462	4.86E-05	-3.05000
0.36963	4.70E-05	-3.05000
0.37463	4.72E-05	-4.58000
0.37961	4.57E-05	-4.58000
0.38461	4.60E-05	-3.05000
0.38962	4.43E-05	-3.05000
0.39462	4.48E-05	-4.58000
0.39963	4.36E-05	-4.58000
0.40463	4.41E-05	-4.58000
0.40961	4.30E-05	-3.05000
0.41461	4.37E-05	-3.05000
0.41962	4.27E-05	-3.05000
0.42462	4.35E-05	-3.05000
0.42963	4.26E-05	-4.58000
0.43466	4.35E-05	-3.05000
0.43961	4.27E-05	-3.05000
0.44464	4.36E-05	-3.05000
0.44965	4.30E-05	-3.05000
0.45462	4.40E-05	-3.05000
0.45963	4.34E-05	-3.05000
0.46463	4.45E-05	-1.52500
0.4696	4.40E-05	-1.52500
0.47464	4.51E-05	-1.52500
0.47961	4.47E-05	-1.52500
0.48462	4.59E-05	-1.52500
0.48965	4.55E-05	-1.52500
0.49463	4.68E-05	0.00000
0.4924	1.67E-05	0.00000
0.4874	8.54E-06	0.00000
0.48242	1.67E-06	0.00000
0.47739	-1.70E-06	-1.52500
0.47238	-5.49E-06	-1.52500
0.46741	-6.88E-06	0.00000
0.4624	-9.36E-06	0.00000
0.4574	-9.84E-06	0.00000
0.45239	-1.17E-05	0.00000
0.44739	-1.17E-05	0.00000
0.44238	-1.33E-05	0.00000
0.43741	-1.31E-05	-1.52500
0.43237	-1.45E-05	-1.52500
0.4274	-1.42E-05	0.00000
0.42236	-1.55E-05	0.00000
0.41739	-1.52E-05	0.00000
0.41238	-1.65E-05	0.00000
0.40738	-1.61E-05	0.00000
0.40237	-1.74E-05	0.00000
0.3974	-1.70E-05	0.00000
0.39236	-1.83E-05	0.00000
0.38739	-1.80E-05	-1.52500
0.38239	-1.92E-05	-1.52500
0.37738	-1.88E-05	0.00000
0.37241	-2.01E-05	0.00000
0.3674	-1.98E-05	0.00000
0.36237	-2.10E-05	0.00000
0.35739	-2.07E-05	-1.52500
0.35239	-2.19E-05	-1.52500
0.34738	-2.16E-05	-1.52500
0.34238	-2.28E-05	-1.52500
0.33737	-2.25E-05	0.00000
0.33237	-2.38E-05	0.00000
0.32739	-2.34E-05	-1.52500
0.32236	-2.46E-05	-1.52500
0.31738	-2.43E-05	-1.52500
0.31238	-2.55E-05	-1.52500
0.30737	-2.52E-05	0.00000
0.3024	-2.65E-05	-1.52500
0.29739	-2.61E-05	-3.05000
0.29236	-2.74E-05	-3.05000
0.28738	-2.70E-05	-3.05000
0.28238	-2.83E-05	-3.05000
0.2774	-2.80E-05	-3.05000
0.2724	-2.93E-05	-3.05000
0.26739	-2.91E-05	-3.05000
0.26239	-3.04E-05	-3.05000
0.25739	-3.02E-05	-3.05000
0.25238	-3.15E-05	-3.05000
0.24741	-3.13E-05	-3.05000
0.2424	-3.28E-05	-3.05000
0.23737	-3.26E-05	-3.05000
0.23239	-3.41E-05	-3.05000
0.22739	-3.40E-05	-3.05000
0.22238	-3.56E-05	-3.05000
0.21741	-3.56E-05	-3.05000
0.2124	-3.72E-05	-3.05000
0.2074	-3.73E-05	-4.58000
0.20239	-3.90E-05	-4.58000
0.19739	-3.92E-05	-4.58000
0.19238	-4.10E-05	-4.58000
0.18741	-4.13E-05	-4.58000
0.1824	-4.32E-05	-4.58000
0.1774	-4.36E-05	-6.10500
0.17239	-4.57E-05	-6.10500
0.16739	-4.63E-05	-6.10500
0.16238	-4.85E-05	-4.58000
0.15738	-4.93E-05	-6.10500
0.1524	-5.17E-05	-6.10500
0.1474	-5.26E-05	-6.10500
0.14239	-5.51E-05	-7.63000
0.13739	-5.62E-05	-6.10500
0.13239	-5.89E-05	-6.10500
0.12738	-6.01E-05	-7.63000
0.12241	-6.28E-05	-7.63000
0.1174	-6.41E-05	-7.63000
0.1124	-6.68E-05	-7.63000
0.10739	-6.80E-05	-7.63000
0.10239	-7.07E-05	-7.63000
0.09738	-7.18E-05	-9.15500
0.09241	-7.44E-05	-9.15500
0.0874	-7.54E-05	-7.63000
0.0824	-7.80E-05	-7.63000
0.07739	-7.89E-05	-9.15500
0.07239	-8.14E-05	-9.15500
0.06741	-8.24E-05	-10.68000
0.06241	-8.48E-05	-10.68000
0.0574	-8.56E-05	-10.68000
0.0524	-8.79E-05	-10.68000
0.04738	-8.86E-05	-12.21000
0.04239	-9.06E-05	-12.21000
0.03739	-9.11E-05	-12.21000
0.03239	-9.29E-05	-12.21000
0.0274	-9.31E-05	-12.21000
0.0224	-9.47E-05	-13.73500
0.0174	-9.46E-05	-13.73500
0.01241	-9.59E-05	-15.26000
0.00741	-9.56E-05	-15.26000
0.00241	-9.68E-05	-16.78500
-0.00258	-9.63E-05	-16.78500
-0.00759	-9.74E-05	-15.26000
-0.01258	-9.70E-05	-16.78500
-0.01758	-9.80E-05	-16.78500
-0.02257	-9.77E-05	-16.78500
-0.02757	-9.90E-05	-16.78500
-0.03257	-9.91E-05	-18.31000
-0.03757	-1.01E-04	-18.31000
-0.04256	-1.01E-04	-18.31000
-0.04756	-1.03E-04	-18.31000
-0.05258	-1.04E-04	-18.31000
-0.05759	-1.07E-04	-19.83500
-0.06259	-1.09E-04	-19.83500
-0.0676	-1.13E-04	-19.83500
-0.07257	-1.15E-04	-19.83500
-0.07758	-1.20E-04	-22.89000
-0.08258	-1.24E-04	-22.89000
-0.08759	-1.30E-04	-21.36500
-0.09259	-1.35E-04	-22.89000
-0.0976	-1.42E-04	-24.41500
-0.10257	-1.49E-04	-24.41500
-0.10757	-1.57E-04	-24.41500
-0.11258	-1.65E-04	-24.41500
-0.11758	-1.75E-04	-25.94000
-0.12259	-1.84E-04	-25.94000
-0.12756	-1.94E-04	-27.46500
-0.13257	-2.03E-04	-27.46500
-0.13757	-2.13E-04	-28.99000
-0.14258	-2.22E-04	-28.99000
-0.14758	-2.32E-04	-30.52000
-0.15259	-2.40E-04	-30.52000
-0.15756	-2.49E-04	-33.57000
-0.16257	-2.56E-04	-33.57000
-0.16757	-2.64E-04	-35.09500
-0.17258	-2.68E-04	-35.09500
-0.17758	-2.73E-04	-38.15000
-0.18256	-2.75E-04	-36.62000
-0.18756	-2.77E-04	-38.15000
-0.19257	-2.75E-04	-38.15000
-0.19757	-2.73E-04	-41.20000
-0.20258	-2.68E-04	-41.20000
-0.20758	-2.62E-04	-44.25000
-0.21255	-2.54E-04	-44.25000
-0.21756	-2.47E-04	-45.77500
-0.22256	-2.38E-04	-45.77500
-0.22757	-2.31E-04	-47.30500
-0.23257	-2.23E-04	-47.30500
-0.23755	-2.16E-04	-48.83000
-0.24255	-2.09E-04	-48.83000
-0.24756	-2.03E-04	-50.35500
-0.25253	-1.97E-04	-50.35500
-0.25754	-1.92E-04	-51.88000
-0.26254	-1.87E-04	-53.40500
-0.26755	-1.83E-04	-54.93000
-0.27255	-1.78E-04	-54.93000
-0.27756	-1.75E-04	-56.46000
-0.28253	-1.71E-04	-56.46000
-0.28757	-1.68E-04	-57.98500
-0.29254	-1.65E-04	-57.98500
-0.29755	-1.62E-04	-57.98500
-0.30255	-1.59E-04	-59.51000
-0.30756	-1.57E-04	-61.03500
-0.31253	-1.54E-04	-61.03500
-0.31754	-1.52E-04	-61.03500
-0.32254	-1.49E-04	-61.03500
-0.32755	-1.48E-04	-62.56000
-0.33255	-1.45E-04	-62.56000
-0.33755	-1.44E-04	-64.08500
-0.34256	-1.41E-04	-64.08500
-0.34753	-1.40E-04	-65.61500
-0.35254	-1.38E-04	-65.61500
-0.35754	-1.37E-04	-65.61500
-0.36252	-1.35E-04	-67.14000
-0.36752	-1.34E-04	-67.14000
-0.37253	-1.32E-04	-67.14000
-0.37753	-1.31E-04	-68.66500
-0.38254	-1.29E-04	-68.66500
-0.38754	-1.28E-04	-70.19000
-0.39252	-1.26E-04	-70.19000
-0.39752	-1.26E-04	-70.19000
-0.40253	-1.24E-04	-70.19000
-0.40753	-1.23E-04	-73.24500
-0.41254	-1.22E-04	-73.24500
-0.41754	-1.21E-04	-73.24500
-0.42252	-1.20E-04	-73.24500
-0.42755	-1.19E-04	-74.77000
-0.43253	-1.18E-04	-74.77000
-0.43753	-1.17E-04	-74.77000
-0.4425	-1.16E-04	-76.29500
-0.44751	-1.15E-04	-76.29500
-0.45251	-1.14E-04	-76.29500
-0.45752	-1.14E-04	-76.29500
-0.46252	-1.12E-04	-77.82000
-0.46753	-1.12E-04	-77.82000
-0.4725	-1.11E-04	-77.82000
-0.47751	-1.10E-04	-77.82000
-0.48251	-1.09E-04	-79.34500
-0.48752	-1.09E-04	-80.87000
-0.49252	-1.08E-04	-80.87000
-0.49753	-1.07E-04	-80.87000
-0.4978	-1.04E-04	-80.87000
-0.4928	-1.02E-04	-82.40000
-0.48779	-1.01E-04	-82.40000
-0.48279	-1.00E-04	-82.40000
-0.47778	-9.89E-05	-83.92500
-0.47278	-9.85E-05	-83.92500
-0.46777	-9.72E-05	-83.92500
-0.46277	-9.69E-05	-83.92500
-0.45779	-9.57E-05	-85.45000
-0.45279	-9.55E-05	-85.45000
-0.44778	-9.43E-05	-86.97500
-0.44278	-9.41E-05	-85.45000
-0.43777	-9.30E-05	-86.97500
-0.43277	-9.28E-05	-86.97500
-0.42776	-9.17E-05	-86.97500
-0.42276	-9.16E-05	-86.97500
-0.41776	-9.05E-05	-88.50000
-0.41278	-9.04E-05	-88.50000
-0.40775	-8.93E-05	-88.50000
-0.40277	-8.92E-05	-88.50000
-0.39777	-8.82E-05	-91.55500
-0.39276	-8.81E-05	-90.02500
-0.38776	-8.71E-05	-90.02500
-0.38275	-8.70E-05	-90.02500
-0.37775	-8.60E-05	-93.08000
-0.37277	-8.60E-05	-91.55500
-0.36774	-8.50E-05	-93.08000
-0.36276	-8.50E-05	-91.55500
-0.35776	-8.40E-05	-94.60500
-0.35275	-8.40E-05	-94.60500
-0.34775	-8.31E-05	-94.60500
-0.34277	-8.31E-05	-93.08000
-0.33774	-8.21E-05	-96.13000
-0.33276	-8.22E-05	-96.13000
-0.32776	-8.12E-05	-96.13000
-0.32275	-8.12E-05	-96.13000
-0.31775	-8.03E-05	-96.13000
-0.31274	-8.04E-05	-96.13000
-0.30774	-7.94E-05	-97.65500
-0.30273	-7.94E-05	-97.65500
-0.29773	-7.85E-05	-97.65500
-0.29276	-7.85E-05	-97.65500
-0.28775	-7.76E-05	-97.65500
-0.28275	-7.76E-05	-97.65500
-0.27774	-7.66E-05	-100.71000
-0.27274	-7.66E-05	-99.18500
-0.26773	-7.56E-05	-100.71000
-0.26273	-7.56E-05	-100.71000
-0.25772	-7.45E-05	-102.23500
-0.25272	-7.44E-05	-100.71000
-0.24774	-7.33E-05	-100.71000
-0.24274	-7.31E-05	-100.71000
-0.23773	-7.19E-05	-103.76000
-0.23273	-7.16E-05	-102.23500
-0.22772	-7.02E-05	-103.76000
-0.22275	-6.97E-05	-102.23500
-0.21774	-6.82E-05	-105.28500
-0.21274	-6.74E-05	-105.28500
-0.20773	-6.57E-05	-105.28500
-0.20273	-6.46E-05	-103.76000
-0.19772	-6.25E-05	-105.28500
-0.19272	-6.10E-05	-105.28500
-0.18771	-5.85E-05	-106.81000
-0.18274	-5.64E-05	-105.28500
-0.17773	-5.34E-05	-106.81000
-0.17273	-5.08E-05	-106.81000
-0.16772	-4.70E-05	-108.34000
-0.16272	-4.37E-05	-106.81000
-0.15771	-3.93E-05	-108.34000
-0.15274	-3.52E-05	-108.34000
-0.14774	-3.01E-05	-108.34000
-0.14273	-2.52E-05	-108.34000
-0.13773	-1.94E-05	-108.34000
-0.13272	-1.38E-05	-108.34000
-0.12772	-7.29E-06	-108.34000
-0.12274	-8.92E-07	-108.34000
-0.11774	6.29E-06	-108.34000
-0.11273	1.34E-05	-108.34000
-0.10773	2.13E-05	-108.34000
-0.10272	2.92E-05	-108.34000
-0.09772	3.78E-05	-108.34000
-0.09274	4.65E-05	-108.34000
-0.08774	5.59E-05	-108.34000
-0.08273	6.54E-05	-108.34000
-0.07773	7.56E-05	-109.86500
-0.07272	8.58E-05	-108.34000
-0.06772	9.67E-05	-108.34000
-0.06271	1.08E-04	-108.34000
-0.05774	1.19E-04	-108.34000
-0.05273	1.31E-04	-106.81000
-0.0477	1.43E-04	-106.81000
-0.0427	1.56E-04	-106.81000
-0.0377	1.69E-04	-105.28500
-0.03271	1.82E-04	-105.28500
-0.02771	1.95E-04	-105.28500
-0.02271	2.09E-04	-105.28500
-0.01771	2.23E-04	-102.23500
-0.01272	2.38E-04	-102.23500
-0.00771	2.53E-04	-100.71000
-0.00272	2.68E-04	-100.71000
0.00228	2.83E-04	-97.65500
0.00728	2.99E-04	-97.65500
0.01227	3.15E-04	-96.13000
0.01727	3.31E-04	-96.13000
0.02227	3.47E-04	-93.08000
0.02726	3.63E-04	-93.08000
0.03227	3.80E-04	-90.02500
0.03726	3.97E-04	-90.02500
0.04226	4.14E-04	-86.97500
0.04726	4.31E-04	-86.97500
0.05228	4.48E-04	-82.40000
0.05728	4.66E-04	-82.40000
0.06229	4.83E-04	-77.82000
0.06729	5.00E-04	-77.82000
0.07227	5.18E-04	-74.77000
0.07727	5.35E-04	-74.77000
0.08228	5.52E-04	-68.66500
0.08728	5.69E-04	-68.66500
0.09229	5.86E-04	-65.61500
0.09729	6.03E-04	-64.08500
0.10229	6.19E-04	-59.51000
0.1073	6.34E-04	-57.98500
0.11227	6.48E-04	-54.93000
0.11728	6.60E-04	-53.40500
0.12231	6.69E-04	-48.83000
0.12729	6.75E-04	-47.30500
0.13229	6.77E-04	-42.72500
0.1373	6.73E-04	-41.20000
0.14227	6.63E-04	-36.62000
0.14728	6.45E-04	-35.09500
0.15228	6.19E-04	-32.04500
0.15729	5.77E-04	-28.99000
0.16229	5.16E-04	-25.94000
0.1673	4.39E-04	-24.41500
0.1723	3.62E-04	-22.89000
0.17731	2.96E-04	-19.83500
0.18228	2.45E-04	-18.31000
0.18732	2.07E-04	-16.78500
0.19229	1.77E-04	-16.78500
0.1973	1.55E-04	-15.26000
0.2023	1.37E-04	-15.26000
0.20731	1.24E-04	-13.73500
0.21231	1.13E-04	-13.73500
0.21732	1.05E-04	-13.73500
0.22229	9.81E-05	-13.73500
0.22729	9.26E-05	-12.21000
0.2323	8.80E-05	-12.21000
0.23727	8.42E-05	-10.68000
0.24231	8.10E-05	-10.68000
0.24731	7.84E-05	-10.68000
0.25229	7.60E-05	-10.68000
0.25729	7.41E-05	-9.15500
0.2623	7.23E-05	-9.15500
0.26727	7.09E-05	-7.63000
0.27228	6.93E-05	-9.15500
0.27728	6.81E-05	-7.63000
0.28229	6.67E-05	-9.15500
0.28729	6.56E-05	-7.63000
0.2923	6.43E-05	-9.15500
0.29727	6.32E-05	-6.10500
0.30231	6.18E-05	-7.63000
0.30728	6.07E-05	-6.10500
0.31229	5.94E-05	-7.63000
0.31729	5.83E-05	-6.10500
0.3223	5.69E-05	-7.63000
0.3273	5.59E-05	-4.58000
0.33228	5.46E-05	-6.10500
0.33728	5.36E-05	-4.58000
0.34229	5.24E-05	-6.10500
0.34729	5.15E-05	-4.58000
0.35229	5.04E-05	-6.10500
0.3573	4.97E-05	-4.58000
0.36227	4.86E-05	-4.58000
0.36728	4.80E-05	-4.58000
0.37231	4.71E-05	-4.58000
0.37729	4.66E-05	-4.58000
0.38229	4.58E-05	-4.58000
0.3873	4.51E-05	-3.05000
0.39227	4.45E-05	-4.58000
0.39728	4.43E-05	-4.58000
0.40228	4.38E-05	-4.58000
0.40729	4.37E-05	-3.05000
0.41229	4.33E-05	-3.05000
0.4173	4.33E-05	-3.05000
0.4223	4.30E-05	-4.58000
0.42731	4.32E-05	-3.05000
0.43228	4.30E-05	-4.58000
0.43732	4.32E-05	-3.05000
0.44229	4.31E-05	-3.05000
0.4473	4.34E-05	-1.52500
0.4523	4.34E-05	-1.52500
0.45728	4.38E-05	-1.52500
0.46231	4.38E-05	-3.05000
0.46732	4.44E-05	0.00000
0.47229	4.44E-05	0.00000
0.47729	4.51E-05	0.00000
0.4823	4.52E-05	-1.52500
0.48727	4.59E-05	-1.52500
0.49231	4.60E-05	-1.52500
0.48975	1.17E-05	0.00000
0.48471	4.73E-06	0.00000
0.47971	-5.04E-07	0.00000
0.47473	-3.70E-06	0.00000
0.46973	-6.50E-06	0.00000
0.46472	-8.12E-06	0.00000
0.45972	-9.82E-06	0.00000
0.45471	-1.07E-05	0.00000
0.44971	-1.19E-05	0.00000
0.44473	-1.24E-05	0.00000
0.4397	-1.34E-05	0.00000
0.43472	-1.37E-05	0.00000
0.42972	-1.45E-05	0.00000
0.42468	-1.47E-05	0.00000
0.41971	-1.55E-05	0.00000
0.4147	-1.57E-05	0.00000
0.4097	-1.65E-05	0.00000
0.40472	-1.66E-05	0.00000
0.39972	-1.74E-05	0.00000
0.39471	-1.75E-05	0.00000
0.38971	-1.83E-05	0.00000
0.3847	-1.84E-05	0.00000
0.3797	-1.92E-05	0.00000
0.37473	-1.93E-05	0.00000
0.36969	-2.01E-05	-1.52500
0.36472	-2.03E-05	0.00000
0.35971	-2.10E-05	-1.52500
0.35471	-2.12E-05	0.00000
0.3497	-2.20E-05	0.00000
0.3447	-2.21E-05	-1.52500
0.33972	-2.29E-05	-1.52500
0.33472	-2.30E-05	0.00000
0.32971	-2.38E-05	-1.52500
0.32471	-2.38E-05	-1.52500
0.3197	-2.47E-05	-3.05000
0.3147	-2.48E-05	-1.52500
0.30972	-2.56E-05	-1.52500
0.30472	-2.57E-05	-1.52500
0.29968	-2.65E-05	-1.52500
0.29471	-2.66E-05	0.00000
0.2897	-2.74E-05	-1.52500
0.2847	-2.75E-05	-3.05000
0.27969	-2.84E-05	-3.05000
0.27469	-2.85E-05	-1.52500
0.26971	-2.94E-05	-1.52500
0.26471	-2.96E-05	-1.52500
0.2597	-3.05E-05	-1.52500
0.2547	-3.07E-05	-3.05000
0.24973	-3.17E-05	-3.05000
0.24472	-3.19E-05	-3.05000
0.23972	-3.30E-05	-3.05000
0.23471	-3.32E-05	-3.05000
0.22971	-3.44E-05	-3.05000
0.22473	-3.47E-05	-3.05000
0.2197	-3.59E-05	-4.58000
0.21472	-3.62E-05	-3.05000
0.20972	-3.76E-05	-4.58000
0.20471	-3.80E-05	-4.58000
0.19971	-3.94E-05	-4.58000
0.19473	-4.00E-05	-4.58000
0.1897	-4.15E-05	-4.58000
0.18472	-4.22E-05	-4.58000
0.17972	-4.38E-05	-4.58000
0.17471	-4.46E-05	-4.58000
0.16971	-4.64E-05	-4.58000
0.1647	-4.74E-05	-4.58000
0.1597	-4.94E-05	-4.58000
0.15472	-5.05E-05	-4.58000
0.14972	-5.27E-05	-6.10500
0.14471	-5.40E-05	-6.10500
0.13971	-5.63E-05	-7.63000
0.1347	-5.76E-05	-6.10500
0.12973	-6.01E-05	-7.63000
0.12473	-6.16E-05	-6.10500
0.11972	-6.41E-05	-7.63000
0.11472	-6.56E-05	-7.63000
0.10971	-6.81E-05	-7.63000
0.10471	-6.95E-05	-7.63000
0.09973	-7.19E-05	-9.15500
0.09473	-7.32E-05	-9.15500
0.08972	-7.56E-05	-9.15500
0.08472	-7.68E-05	-9.15500
0.07971	-7.92E-05	-9.15500
0.07471	-8.04E-05	-9.15500
0.06973	-8.26E-05	-9.15500
0.06473	-8.37E-05	-9.15500
0.05972	-8.59E-05	-10.68000
0.05472	-8.69E-05	-10.68000
0.04971	-8.89E-05	-10.68000
0.04471	-8.97E-05	-10.68000
0.03971	-9.16E-05	-12.21000
0.03471	-9.21E-05	-12.21000
0.02972	-9.37E-05	-12.21000
0.02472	-9.40E-05	-12.21000
0.01972	-9.52E-05	-13.73500
0.01472	-9.52E-05	-13.73500
0.00973	-9.63E-05	-15.26000
0.00473	-9.61E-05	-15.26000
-2.62E-04	-9.70E-05	-15.26000
-0.00526	-9.67E-05	-15.26000
-0.01026	-9.77E-05	-16.78500
-0.01526	-9.74E-05	-16.78500
-0.02025	-9.84E-05	-16.78500
-0.02525	-9.83E-05	-16.78500
-0.03025	-9.96E-05	-18.31000
-0.03524	-9.99E-05	-18.31000
-0.04024	-1.02E-04	-18.31000
-0.04524	-1.02E-04	-18.31000
-0.05023	-1.05E-04	-18.31000
-0.05527	-1.06E-04	-19.83500
-0.06027	-1.09E-04	-19.83500
-0.06525	-1.11E-04	-19.83500
-0.07025	-1.15E-04	-19.83500
-0.07526	-1.19E-04	-19.83500
-0.08026	-1.24E-04	-21.36500
-0.08527	-1.28E-04	-21.36500
-0.09027	-1.34E-04	-22.89000
-0.09525	-1.40E-04	-22.89000
-0.10025	-1.48E-04	-22.89000
-0.10526	-1.55E-04	-22.89000
-0.11026	-1.64E-04	-25.94000
-0.11526	-1.73E-04	-24.41500
-0.12027	-1.83E-04	-27.46500
-0.12524	-1.92E-04	-27.46500
-0.13025	-2.03E-04	-27.46500
-0.13525	-2.12E-04	-27.46500
-0.14026	-2.23E-04	-28.99000
-0.14526	-2.32E-04	-28.99000
-0.15024	-2.42E-04	-32.04500
-0.15524	-2.50E-04	-32.04500
-0.16025	-2.59E-04	-35.09500
-0.16525	-2.66E-04	-35.09500
-0.17026	-2.73E-04	-36.62000
-0.17523	-2.77E-04	-36.62000
-0.18024	-2.81E-04	-38.15000
-0.18524	-2.83E-04	-38.15000
-0.19025	-2.84E-04	-41.20000
-0.19525	-2.81E-04	-41.20000
-0.20026	-2.78E-04	-42.72500
-0.20523	-2.72E-04	-42.72500
-0.21024	-2.66E-04	-45.77500
-0.21524	-2.58E-04	-45.77500
-0.22025	-2.50E-04	-47.30500
-0.22525	-2.41E-04	-47.30500
-0.23026	-2.34E-04	-50.35500
-0.23523	-2.25E-04	-50.35500
-0.24023	-2.19E-04	-50.35500
-0.24524	-2.12E-04	-50.35500
-0.25021	-2.06E-04	-51.88000
-0.25522	-2.00E-04	-51.88000
-0.26022	-1.95E-04	-54.93000
-0.26523	-1.90E-04	-54.93000
-0.27023	-1.86E-04	-56.46000
-0.27524	-1.81E-04	-56.46000
-0.28024	-1.78E-04	-57.98500
-0.28522	-1.74E-04	-57.98500
-0.29022	-1.71E-04	-57.98500
-0.29523	-1.67E-04	-57.98500
-0.30023	-1.65E-04	-59.51000
-0.30521	-1.62E-04	-61.03500
-0.31024	-1.59E-04	-62.56000
-0.31522	-1.57E-04	-62.56000
-0.32022	-1.54E-04	-64.08500
-0.32523	-1.52E-04	-64.08500
-0.33023	-1.50E-04	-65.61500
-0.33524	-1.48E-04	-65.61500
-0.34021	-1.46E-04	-65.61500
-0.34521	-1.44E-04	-65.61500
-0.35022	-1.42E-04	-67.14000
-0.35522	-1.40E-04	-68.66500
-0.3602	-1.39E-04	-68.66500
-0.36523	-1.37E-04	-68.66500
-0.37021	-1.36E-04	-70.19000
-0.37521	-1.34E-04	-70.19000
-0.38022	-1.33E-04	-70.19000
-0.38519	-1.31E-04	-71.71500
-0.39023	-1.30E-04	-71.71500
-0.3952	-1.29E-04	-73.24500
-0.40021	-1.28E-04	-73.24500
-0.40521	-1.26E-04	-73.24500
-0.41022	-1.25E-04	-74.77000
-0.41519	-1.24E-04	-76.29500
-0.42023	-1.23E-04	-76.29500
-0.4252	-1.22E-04	-76.29500
-0.43021	-1.21E-04	-76.29500
-0.43521	-1.20E-04	-76.29500
-0.44019	-1.19E-04	-76.29500
-0.44519	-1.18E-04	-77.82000
-0.4502	-1.17E-04	-77.82000
-0.4552	-1.16E-04	-79.34500
-0.46021	-1.15E-04	-79.34500
-0.46521	-1.14E-04	-79.34500
-0.47018	-1.14E-04	-79.34500
-0.47519	-1.13E-04	-80.87000
-0.48019	-1.12E-04	-80.87000
-0.4852	-1.11E-04	-80.87000
-0.4902	-1.11E-04	-80.87000
-0.49518	-1.10E-04	-83.92500
-0.50018	-1.09E-04	-83.92500
-0.49512	-1.05E-04	-85.45000
-0.49011	-1.04E-04	-85.45000
-0.48511	-1.02E-04	-85.45000
-0.4801	-1.02E-04	-85.45000
-0.4751	-1.01E-04	-86.97500
-0.47009	-1.00E-04	-86.97500
-0.46512	-9.90E-05	-86.97500
-0.46011	-9.85E-05	-86.97500
-0.45511	-9.74E-05	-88.50000
-0.4501	-9.70E-05	-86.97500
-0.4451	-9.60E-05	-88.50000
-0.44009	-9.56E-05	-88.50000
-0.43509	-9.46E-05	-90.02500
-0.43008	-9.43E-05	-90.02500
-0.42508	-9.34E-05	-91.55500
-0.42011	-9.31E-05	-91.55500
-0.4151	-9.21E-05	-91.55500
-0.4101	-9.19E-05	-91.55500
-0.40509	-9.09E-05	-93.08000
-0.40009	-9.07E-05	-93.08000
-0.39508	-8.98E-05	-93.08000
-0.39008	-8.96E-05	-93.08000
-0.38507	-8.87E-05	-94.60500
-0.38007	-8.85E-05	-94.60500
-0.37509	-8.76E-05	-96.13000
-0.37009	-8.75E-05	-96.13000
-0.36508	-8.65E-05	-96.13000
-0.36008	-8.64E-05	-96.13000
-0.35507	-8.55E-05	-96.13000
-0.35007	-8.54E-05	-96.13000
-0.34506	-8.45E-05	-96.13000
-0.34009	-8.45E-05	-96.13000
-0.33508	-8.36E-05	-97.65500
-0.33008	-8.35E-05	-97.65500
-0.32507	-8.26E-05	-97.65500
-0.32007	-8.26E-05	-97.65500
-0.31506	-8.17E-05	-100.71000
-0.31006	-8.17E-05	-99.18500
-0.30505	-8.08E-05	-100.71000
-0.30005	-8.07E-05	-100.71000
-0.29507	-7.98E-05	-100.71000
-0.29007	-7.98E-05	-100.71000
-0.28506	-7.89E-05	-100.71000
-0.28006	-7.89E-05	-100.71000
-0.27505	-7.79E-05	-103.76000
-0.27005	-7.79E-05	-102.23500
-0.26505	-7.68E-05	-103.76000
-0.26007	-7.68E-05	-103.76000
-0.25504	-7.57E-05	-105.28500
-0.25006	-7.56E-05	-105.28500
-0.24506	-7.44E-05	-105.28500
-0.24008	-7.42E-05	-105.28500
-0.23505	-7.28E-05	-105.28500
-0.23007	-7.26E-05	-105.28500
-0.22507	-7.10E-05	-106.81000
-0.22006	-7.06E-05	-106.81000
-0.21506	-6.88E-05	-106.81000
-0.21005	-6.82E-05	-106.81000
-0.20505	-6.61E-05	-106.81000
-0.20007	-6.51E-05	-106.81000
-0.19507	-6.27E-05	-108.34000
-0.19006	-6.12E-05	-108.34000
-0.18506	-5.83E-05	-109.86500
-0.18005	-5.64E-05	-109.86500
-0.17505	-5.28E-05	-109.86500
-0.17007	-5.03E-05	-111.39000
-0.16504	-4.60E-05	-111.39000
-0.16006	-4.28E-05	-109.86500
-0.15506	-3.78E-05	-111.39000
-0.15005	-3.39E-05	-111.39000
-0.14505	-2.81E-05	-111.39000
-0.14005	-2.34E-05	-111.39000
-0.13504	-1.69E-05	-111.39000
-0.13007	-1.15E-05	-111.39000
-0.12503	-4.22E-06	-112.91500
-0.12006	1.86E-06	-112.91500
-0.11505	9.86E-06	-112.91500
-0.11005	1.67E-05	-112.91500
-0.10504	2.54E-05	-112.91500
-0.10007	3.29E-05	-112.91500
-0.09503	4.24E-05	-112.91500
-0.09006	5.08E-05	-112.91500
-0.08505	6.10E-05	-111.39000
-0.08005	7.01E-05	-112.91500
-0.07504	8.12E-05	-112.91500
-0.07004	9.10E-05	-112.91500
-0.06503	1.03E-04	-111.39000
-0.06006	1.13E-04	-111.39000
-0.05505	1.26E-04	-109.86500
-0.05005	1.37E-04	-109.86500
-0.04502	1.50E-04	-108.34000
-0.04003	1.62E-04	-108.34000
-0.03503	1.76E-04	-108.34000
-0.03003	1.89E-04	-108.34000
-0.02503	2.03E-04	-106.81000
-0.02004	2.16E-04	-106.81000
-0.01504	2.32E-04	-105.28500
-0.01004	2.45E-04	-105.28500
-0.00504	2.61E-04	-103.76000
-4.88E-05	2.76E-04	-103.76000
0.00496	2.92E-04	-102.23500
0.00995	3.07E-04	-100.71000
0.01495	3.24E-04	-99.18500
0.01995	3.39E-04	-97.65500
0.02495	3.56E-04	-96.13000
0.02994	3.72E-04	-94.60500
0.03494	3.90E-04	-93.08000
0.03993	4.06E-04	-91.55500
0.04494	4.24E-04	-90.02500
0.04996	4.41E-04	-88.50000
0.05496	4.59E-04	-86.97500
0.05997	4.75E-04	-83.92500
0.06494	4.94E-04	-83.92500
0.06995	5.11E-04	-79.34500
0.07495	5.29E-04	-79.34500
0.07996	5.45E-04	-74.77000
0.08496	5.63E-04	-74.77000
0.08997	5.80E-04	-70.19000
0.09494	5.98E-04	-70.19000
0.09995	6.13E-04	-65.61500
0.10495	6.30E-04	-65.61500
0.10995	6.45E-04	-61.03500
0.11496	6.59E-04	-61.03500
0.11996	6.71E-04	-53.40500
0.12497	6.82E-04	-53.40500
0.12997	6.87E-04	-47.30500
0.13495	6.90E-04	-47.30500
0.13995	6.85E-04	-41.20000
0.14499	6.76E-04	-41.20000
0.14996	6.58E-04	-35.09500
0.15497	6.31E-04	-35.09500
0.15997	5.88E-04	-27.46500
0.16498	5.26E-04	-28.99000
0.16998	4.45E-04	-24.41500
0.17496	3.67E-04	-24.41500
0.17996	2.99E-04	-19.83500
0.185	2.48E-04	-19.83500
0.18997	2.08E-04	-16.78500
0.19498	1.79E-04	-16.78500
0.19998	1.55E-04	-15.26000
0.20496	1.38E-04	-15.26000
0.20996	1.24E-04	-13.73500
0.215	1.14E-04	-13.73500
0.21997	1.05E-04	-12.21000
0.22498	9.84E-05	-12.21000
0.22998	9.20E-05	-12.21000
0.23495	8.81E-05	-12.21000
0.23996	8.36E-05	-10.68000
0.24496	8.11E-05	-10.68000
0.24997	7.77E-05	-9.15500
0.25497	7.61E-05	-9.15500
0.25995	7.34E-05	-7.63000
0.26495	7.24E-05	-9.15500
0.26996	7.01E-05	-9.15500
0.27496	6.94E-05	-9.15500
0.27997	6.73E-05	-9.15500
0.28497	6.67E-05	-9.15500
0.28995	6.48E-05	-7.63000
0.29498	6.42E-05	-7.63000
0.29996	6.23E-05	-7.63000
0.30496	6.17E-05	-7.63000
0.30997	5.98E-05	-7.63000
0.31494	5.93E-05	-7.63000
0.31998	5.73E-05	-6.10500
0.32495	5.68E-05	-6.10500
0.32996	5.49E-05	-6.10500
0.33496	5.45E-05	-6.10500
0.33997	5.27E-05	-6.10500
0.34497	5.24E-05	-6.10500
0.34998	5.07E-05	-4.58000
0.35495	5.04E-05	-4.58000
0.35995	4.88E-05	-4.58000
0.36499	4.86E-05	-4.58000
0.36996	4.72E-05	-3.05000
0.37497	4.72E-05	-3.05000
0.37997	4.59E-05	-3.05000
0.38495	4.60E-05	-3.05000
0.38995	4.45E-05	-3.05000
0.39496	4.48E-05	-4.58000
0.39996	4.37E-05	-3.05000
0.40497	4.41E-05	-3.05000
0.40997	4.32E-05	-3.05000
0.41495	4.37E-05	-4.58000
0.41995	4.29E-05	-3.05000
0.42496	4.34E-05	-3.05000
0.42996	4.27E-05	-3.05000
0.435	4.34E-05	-3.05000
0.43997	4.28E-05	-1.52500
0.44498	4.36E-05	-3.05000
0.44998	4.31E-05	-3.05000
0.45496	4.39E-05	-3.05000
0.45996	4.35E-05	-1.52500
0.46497	4.44E-05	-3.05000
0.46997	4.41E-05	0.00000
0.47498	4.51E-05	-1.52500
0.47995	4.48E-05	-1.52500
0.48495	4.58E-05	-1.52500
0.48999	4.57E-05	0.00000
0.49496	4.67E-05	0.00000

